IV with two I-meter
:Program Version
13.8.2003 Moll, 4.2008 Fahrer, 6.2011 Gabrysch
:Program Library
CVIV.llb
:start
14/04/2018 00:58:39
:stop
14/04/2018 01:05:56
:elapsed [s]
436.7
:gpib bus delay [ms]
50
:device
W332-M12
:tester
Isidre
:environment
Probe Station (28-2-019)
:comment
fluence:9.66e13, SET:003138
:annealing time [min]
0
:material
n FZ
:temperature [C]
20.00
:ToolID
1102
:GuardRingConnection
1
:Region
0
:Instruments
I meter: Keithley 6487
V source: Keithley 2410
- integration time [ms]: 20.0
- internal averaging: 4
- compliance [A or V]: 1.000E-4
:ramp up step [V], delay [s], down step [V], delay[s]
2.0, 1.0, 20.0, 0.5
:set voltage start [V], voltage stop [V], number of steps
0.0, 1000.0, 200
:measured voltage start [V], voltage stop [V], number of steps
0.0, 350.0, 59
:step mode
voltages from file
:legend
bias [V]	Total Current [A]	Pad Current [A]
BEGIN
0.000000E+0	-9.191027E-8	-1.018979E-7
5.000000E-1	3.606200E-6	3.773559E-6
1.000000E+0	6.104837E-6	5.143942E-6
1.500000E+0	7.254599E-6	6.111136E-6
2.000000E+0	8.243039E-6	6.937962E-6
3.000000E+0	9.967773E-6	8.379206E-6
4.000000E+0	1.146900E-5	9.638552E-6
5.000000E+0	1.286685E-5	1.080145E-5
6.000000E+0	1.415685E-5	1.187341E-5
7.000000E+0	1.535870E-5	1.287005E-5
8.000000E+0	1.648179E-5	1.379906E-5
9.000000E+0	1.754198E-5	1.467147E-5
1.000000E+1	1.853927E-5	1.549080E-5
1.200000E+1	2.038344E-5	1.699850E-5
1.400000E+1	2.204364E-5	1.834407E-5
1.600000E+1	2.353220E-5	1.953824E-5
1.800000E+1	2.486351E-5	2.058956E-5
2.000000E+1	2.599959E-5	2.146131E-5
2.500000E+1	2.803431E-5	2.289968E-5
3.000000E+1	2.925430E-5	2.361848E-5
3.500000E+1	3.007137E-5	2.402031E-5
4.000000E+1	3.067931E-5	2.427821E-5
4.500000E+1	3.117170E-5	2.446466E-5
5.000000E+1	3.158419E-5	2.460851E-5
5.500000E+1	3.193948E-5	2.472635E-5
6.000000E+1	3.225612E-5	2.482566E-5
6.500000E+1	3.253951E-5	2.491107E-5
7.000000E+1	3.279258E-5	2.498495E-5
7.500000E+1	3.302380E-5	2.504978E-5
8.000000E+1	3.323727E-5	2.510806E-5
8.500000E+1	3.343511E-5	2.516153E-5
9.000000E+1	3.362042E-5	2.521076E-5
9.500000E+1	3.379368E-5	2.525608E-5
1.000000E+2	3.395684E-5	2.529814E-5
1.100000E+2	3.425945E-5	2.537893E-5
1.200000E+2	3.453637E-5	2.545125E-5
1.300000E+2	3.479575E-5	2.552487E-5
1.400000E+2	3.503983E-5	2.559491E-5
1.500000E+2	3.527456E-5	2.566520E-5
1.600000E+2	3.549734E-5	2.573257E-5
1.700000E+2	3.570874E-5	2.579811E-5
1.800000E+2	3.591364E-5	2.586389E-5
1.900000E+2	3.610912E-5	2.592826E-5
2.000000E+2	3.630186E-5	2.599572E-5
2.100000E+2	3.649406E-5	2.606625E-5
2.200000E+2	3.668793E-5	2.613937E-5
2.300000E+2	3.688935E-5	2.621484E-5
2.400000E+2	3.717755E-5	2.629475E-5
2.500000E+2	3.773850E-5	2.637762E-5
2.600000E+2	3.880257E-5	2.646418E-5
2.700000E+2	4.075591E-5	2.655110E-5
2.800000E+2	4.402777E-5	2.663964E-5
2.900000E+2	4.889546E-5	2.673390E-5
3.000000E+2	5.537229E-5	2.683546E-5
3.100000E+2	6.345334E-5	2.694216E-5
3.200000E+2	7.310407E-5	2.705350E-5
3.300000E+2	8.442030E-5	2.717265E-5
3.400000E+2	9.723797E-5	2.730510E-5
3.500000E+2	9.999705E-5	2.734817E-5
END
