CV Measurement
:Program Version
13.8.2003 Moll, 4.2008 Fahrer, 6.2011 Gabrysch
:Program Library
CVIV.llb
:start
15/04/2018 22:37:08
:stop
15/04/2018 22:42:43
:elapsed [s]
335.2
:gpib bus delay [ms]
50
:device
W332-M12
:tester
Isidre
:environment
Probe Station (28-2-019)
:comment
fluence:9.66e13, SET:003138
:annealing time [min]
80
:material
n FZ
:temperature [C]
-20.00
:ToolID
1102
:GuardRingConnection
1
:Region
0
:Instruments
V source: Keithley 237
- current compilance [A]: 1.000E-3
- integration time: 4 ms
- filter (averaging): 8
- source range: 1.1V
LCR meter: Agilent E4980A
- Frequency: 10000 Hz
- Signal level: 500 mV
- Averaging: 10
:LCR open correction: C[F] , G[S]
4.223E-11, 9.221E-9
:ramp up step [V], delay [s], down step [V], delay[s]
2.0, 1.0, 20.0, 0.5
:set voltage start [V], voltage stop [V], number of steps
0.0, 1000.0, 200
:measured voltage start [V], voltage stop [V], number of steps
0.0, 200.0, 44
:step mode
voltages from file
:legend
V_detector [V]	Capacitance [F]	Conductivity [S]	Bias [V]	Current Power Supply [A]
BEGIN
1.416000E-1	3.448604E-11	1.168518E-5	0.000000E+0	-1.159800E-6
3.354349E-1	4.549814E-11	9.913739E-6	5.000000E-1	1.347900E-6
6.127549E-1	5.986594E-11	7.372749E-6	1.000000E+0	3.171800E-6
1.009564E+0	6.644594E-11	5.512929E-6	1.500000E+0	4.017000E-6
1.440376E+0	6.476094E-11	4.664129E-6	2.000000E+0	4.583700E-6
2.339835E+0	6.023094E-11	3.890539E-6	3.000000E+0	5.407200E-6
3.251735E+0	5.589284E-11	3.437349E-6	4.000000E+0	6.128800E-6
4.170618E+0	5.195004E-11	3.103079E-6	5.000000E+0	6.793200E-6
5.089673E+0	4.823584E-11	2.798229E-6	6.000000E+0	7.456200E-6
6.019019E+0	4.530854E-11	2.547179E-6	7.000000E+0	8.034900E-6
6.949342E+0	4.290944E-11	2.334099E-6	8.000000E+0	8.605600E-6
7.887272E+0	4.093074E-11	2.162779E-6	9.000000E+0	9.114000E-6
8.820244E+0	3.906854E-11	2.009119E-6	1.000000E+1	9.663000E-6
1.070499E+1	3.619894E-11	1.784139E-6	1.200000E+1	1.060700E-5
1.259755E+1	3.382564E-11	1.609249E-6	1.400000E+1	1.148700E-5
1.450061E+1	3.193974E-11	1.476549E-6	1.600000E+1	1.228100E-5
1.640868E+1	3.027044E-11	1.362659E-6	1.800000E+1	1.303400E-5
1.832493E+1	2.885664E-11	1.268169E-6	2.000000E+1	1.372000E-5
2.313678E+1	2.575474E-11	1.064539E-6	2.500000E+1	1.526100E-5
2.798393E+1	2.289074E-11	8.861060E-7	3.000000E+1	1.651300E-5
3.286257E+1	2.001034E-11	7.102310E-7	3.500000E+1	1.750700E-5
3.776331E+1	1.741864E-11	5.461150E-7	4.000000E+1	1.832000E-5
4.268627E+1	1.539774E-11	4.148730E-7	4.500000E+1	1.895100E-5
4.762498E+1	1.385764E-11	3.146190E-7	5.000000E+1	1.945300E-5
5.257395E+1	1.269404E-11	2.396350E-7	5.500000E+1	1.987100E-5
5.753061E+1	1.179974E-11	1.829600E-7	6.000000E+1	2.022600E-5
6.249435E+1	1.112724E-11	1.409700E-7	6.500000E+1	2.052300E-5
6.746285E+1	1.061224E-11	1.090790E-7	7.000000E+1	2.078100E-5
7.243428E+1	1.021424E-11	8.413814E-8	7.500000E+1	2.101500E-5
7.740827E+1	9.921740E-12	6.516694E-8	8.000000E+1	2.122800E-5
8.238727E+1	9.708740E-12	5.050364E-8	8.500000E+1	2.140000E-5
8.736664E+1	9.557240E-12	3.919034E-8	9.000000E+1	2.156900E-5
9.234833E+1	9.456740E-12	3.088944E-8	9.500000E+1	2.171900E-5
9.733270E+1	9.391140E-12	2.489544E-8	1.000000E+2	2.184700E-5
1.073041E+2	9.319940E-12	1.754244E-8	1.100000E+2	2.208100E-5
1.172771E+2	9.287240E-12	1.376304E-8	1.200000E+2	2.230200E-5
1.272551E+2	9.268940E-12	1.154544E-8	1.300000E+2	2.248300E-5
1.372344E+2	9.256140E-12	1.005834E-8	1.400000E+2	2.265200E-5
1.472145E+2	9.246540E-12	9.054243E-9	1.500000E+2	2.281500E-5
1.571975E+2	9.240040E-12	8.213243E-9	1.600000E+2	2.295400E-5
1.671824E+2	9.234740E-12	7.617143E-9	1.700000E+2	2.307800E-5
1.771652E+2	9.229940E-12	7.106543E-9	1.800000E+2	2.321900E-5
1.871471E+2	9.225940E-12	6.730443E-9	1.900000E+2	2.336700E-5
1.971334E+2	9.223040E-12	6.445343E-9	2.000000E+2	2.347900E-5
END
