CV Measurement
:Program Version
13.8.2003 Moll, 4.2008 Fahrer, 6.2011 Gabrysch
:Program Library
CVIV.llb
:start
23/11/2017 17:00:28
:stop
23/11/2017 17:08:39
:elapsed [s]
491.4
:gpib bus delay [ms]
50
:device
W332-M12
:tester
Isidre
:environment
Probe Station (28-2-019)
:comment
unirrad
:annealing time [min]
0
:material
n FZ
:temperature [C]
20.00
:ToolID
1102
:GuardRingConnection
1
:Region
0
:Instruments
V source: Keithley 237
- current compilance [A]: 1.000E-3
- integration time: 4 ms
- filter (averaging): 8
- source range: 1.1V
LCR meter: Agilent E4980A
- Frequency: 1000 Hz
- Signal level: 500 mV
- Averaging: 10
:LCR open correction: C[F] , G[S]
4.245E-11, -4.868E-10
:ramp up step [V], delay [s], down step [V], delay[s]
2.0, 1.0, 20.0, 0.5
:set voltage start [V], voltage stop [V], number of steps
0.0, 100.0, 20
:measured voltage start [V], voltage stop [V], number of steps
0.0, 350.0, 59
:step mode
voltages from file
:legend
V_detector [V]	Capacitance [F]	Conductivity [S]	Bias [V]	Current Power Supply [A]
BEGIN
3.415346E-1	3.725770E-9	3.622057E-6	0.000000E+0	-2.797400E-6
4.980339E-1	1.819036E-10	1.523092E-8	5.000000E-1	1.610400E-8
9.976956E-1	1.342956E-10	6.859094E-9	1.000000E+0	1.887500E-8
1.496970E+0	1.142736E-10	5.529854E-9	1.500000E+0	2.481700E-8
2.003495E+0	9.987858E-11	5.376964E-9	2.000000E+0	-2.862300E-8
3.002042E+0	8.444358E-11	4.759284E-9	3.000000E+0	-1.672200E-8
3.997827E+0	7.464658E-11	4.261064E-9	4.000000E+0	1.780000E-8
5.001641E+0	6.769958E-11	3.946024E-9	5.000000E+0	-1.343900E-8
6.001717E+0	6.211858E-11	3.655144E-9	6.000000E+0	-1.406600E-8
6.998980E+0	5.801558E-11	3.403274E-9	7.000000E+0	8.351000E-9
7.998157E+0	5.463578E-11	3.338524E-9	8.000000E+0	1.509800E-8
9.001983E+0	5.182528E-11	3.408314E-9	9.000000E+0	-1.624400E-8
1.000239E+1	4.925688E-11	2.964434E-9	1.000000E+1	-1.960900E-8
1.199888E+1	4.532258E-11	3.473414E-9	1.200000E+1	9.166000E-9
1.400185E+1	4.064938E-11	6.380854E-9	1.400000E+1	-1.517000E-8
1.599785E+1	3.777368E-11	2.500624E-9	1.600000E+1	1.757100E-8
1.799864E+1	3.557308E-11	2.626554E-9	1.800000E+1	1.113600E-8
2.000146E+1	3.381828E-11	2.378174E-9	2.000000E+1	-1.195100E-8
2.499850E+1	3.024508E-11	2.570924E-9	2.500000E+1	1.229900E-8
3.000155E+1	2.763858E-11	2.988664E-9	3.000000E+1	-1.265800E-8
3.499837E+1	2.562108E-11	2.027164E-9	3.500000E+1	1.338900E-8
4.000215E+1	2.394408E-11	2.271704E-9	4.000000E+1	-1.758900E-8
4.499768E+1	2.259448E-11	2.092844E-9	4.500000E+1	1.897300E-8
5.000254E+1	2.144348E-11	2.040194E-9	5.000000E+1	-2.078400E-8
5.500163E+1	2.046248E-11	2.034204E-9	5.500000E+1	-1.336200E-8
5.999821E+1	1.960238E-11	2.000454E-9	6.000000E+1	1.467600E-8
6.500376E+1	1.883458E-11	2.417724E-9	6.500000E+1	-3.082400E-8
7.000023E+1	1.816268E-11	1.718194E-9	7.000000E+1	-1.851400E-9
7.500169E+1	1.752668E-11	2.770474E-9	7.500000E+1	-1.382900E-8
7.999769E+1	1.699488E-11	1.741584E-9	8.000000E+1	1.896100E-8
8.499714E+1	1.648728E-11	2.135534E-9	8.500000E+1	2.341500E-8
8.999756E+1	1.603578E-11	2.491314E-9	9.000000E+1	2.000000E-8
9.499714E+1	1.559458E-11	1.538544E-9	9.500000E+1	2.339300E-8
1.000033E+2	1.519208E-11	1.965834E-9	1.000000E+2	-2.712100E-8
1.099981E+2	1.449988E-11	1.479647E-9	1.100000E+2	1.560300E-8
1.200012E+2	1.387908E-11	1.789824E-9	1.200000E+2	-9.501000E-9
1.300029E+2	1.335678E-11	2.494304E-9	1.300000E+2	-2.399600E-8
1.400023E+2	1.287158E-11	1.628724E-9	1.400000E+2	-1.860600E-8
1.500032E+2	1.244238E-11	2.474154E-9	1.500000E+2	-2.606500E-8
1.599969E+2	1.206328E-11	1.323806E-9	1.600000E+2	2.531600E-8
1.699970E+2	1.168708E-11	1.766384E-9	1.700000E+2	2.490000E-8
1.799984E+2	1.138318E-11	1.493674E-9	1.800000E+2	1.321700E-8
1.899985E+2	1.108258E-11	1.865354E-9	1.900000E+2	1.236300E-8
1.999988E+2	1.080538E-11	1.568054E-9	2.000000E+2	1.021100E-8
2.100018E+2	1.056158E-11	1.844864E-9	2.100000E+2	-1.510300E-8
2.200028E+2	1.029698E-11	2.451354E-9	2.200000E+2	-2.278200E-8
2.299987E+2	1.010368E-11	2.023384E-9	2.300000E+2	1.103400E-8
2.400027E+2	9.871177E-12	1.762704E-9	2.400000E+2	-2.227700E-8
2.499980E+2	9.693277E-12	1.427040E-9	2.500000E+2	1.655000E-8
2.599976E+2	9.510677E-12	1.358457E-9	2.600000E+2	1.929800E-8
2.699984E+2	9.350277E-12	1.268984E-9	2.700000E+2	1.282300E-8
2.799985E+2	9.220877E-12	1.506184E-9	2.800000E+2	1.190800E-8
2.899980E+2	9.139477E-12	1.542604E-9	2.900000E+2	1.624000E-8
3.000021E+2	9.125777E-12	1.717084E-9	3.000000E+2	-1.694100E-8
3.100019E+2	9.087677E-12	1.215713E-9	3.100000E+2	-1.520200E-8
3.200019E+2	9.073877E-12	2.129124E-9	3.200000E+2	-1.550300E-8
3.300029E+2	9.070377E-12	1.762714E-9	3.300000E+2	-2.387800E-8
3.400003E+2	9.078177E-12	1.445005E-9	3.400000E+2	-2.844000E-9
3.500029E+2	9.067977E-12	1.649144E-9	3.500000E+2	-2.377200E-8
END
