CV Measurement
:Program Version
13.8.2003 Moll, 4.2008 Fahrer, 6.2011 Gabrysch
:Program Library
CVIV.llb
:start
23/11/2017 20:49:47
:stop
23/11/2017 20:59:40
:elapsed [s]
593.3
:gpib bus delay [ms]
50
:device
W332-M4
:tester
Isidre
:environment
Probe Station (28-2-019)
:comment
unirrad
:annealing time [min]
0
:material
n FZ
:temperature [C]
20.00
:ToolID
1102
:GuardRingConnection
1
:Region
0
:Instruments
V source: Keithley 237
- current compilance [A]: 1.000E-3
- integration time: 4 ms
- filter (averaging): 8
- source range: 1.1V
LCR meter: Agilent E4980A
- Frequency: 1000 Hz
- Signal level: 500 mV
- Averaging: 10
:LCR open correction: C[F] , G[S]
4.245E-11, -4.868E-10
:ramp up step [V], delay [s], down step [V], delay[s]
2.0, 1.0, 20.0, 0.5
:set voltage start [V], voltage stop [V], number of steps
0.0, 100.0, 20
:measured voltage start [V], voltage stop [V], number of steps
0.0, 450.0, 69
:step mode
voltages from file
:legend
V_detector [V]	Capacitance [F]	Conductivity [S]	Bias [V]	Current Power Supply [A]
BEGIN
3.651956E-1	3.959680E-9	3.879267E-6	0.000000E+0	-2.991200E-6
4.968442E-1	1.932616E-10	2.445042E-8	5.000000E-1	2.584800E-8
9.973631E-1	1.367556E-10	7.199814E-9	1.000000E+0	2.159800E-8
1.501762E+0	1.160416E-10	6.207714E-9	1.500000E+0	-1.443100E-8
1.992680E+0	1.012736E-10	5.261324E-9	2.000000E+0	5.995400E-8
3.001889E+0	8.547358E-11	5.527694E-9	3.000000E+0	-1.546900E-8
3.997244E+0	7.546358E-11	3.910864E-9	4.000000E+0	2.257300E-8
5.001736E+0	6.840558E-11	4.231124E-9	5.000000E+0	-1.421800E-8
6.001376E+0	6.274958E-11	3.572574E-9	6.000000E+0	-1.127300E-8
6.996973E+0	5.856158E-11	3.503184E-9	7.000000E+0	2.479400E-8
7.995332E+0	5.513478E-11	3.283274E-9	8.000000E+0	3.823200E-8
9.001391E+0	5.230218E-11	3.362924E-9	9.000000E+0	-1.139700E-8
9.998866E+0	4.969008E-11	3.718174E-9	1.000000E+1	9.288000E-9
1.199695E+1	4.568868E-11	3.475104E-9	1.200000E+1	2.498200E-8
1.400235E+1	4.125698E-11	6.667034E-9	1.400000E+1	-1.920800E-8
1.599854E+1	3.822628E-11	2.608994E-9	1.600000E+1	1.191800E-8
1.800825E+1	3.602258E-11	2.905744E-9	1.800000E+1	-6.754600E-8
1.999416E+1	3.422828E-11	2.521084E-9	2.000000E+1	4.783800E-8
2.499720E+1	3.060948E-11	2.741864E-9	2.500000E+1	2.290500E-8
2.999597E+1	2.799128E-11	2.032204E-9	3.000000E+1	3.300800E-8
3.499824E+1	2.592158E-11	2.189604E-9	3.500000E+1	1.441300E-8
4.000262E+1	2.421648E-11	2.313454E-9	4.000000E+1	-2.148500E-8
4.499773E+1	2.287908E-11	1.973844E-9	4.500000E+1	1.856400E-8
4.999264E+1	2.168568E-11	2.028134E-9	5.000000E+1	6.025600E-8
5.500255E+1	2.071458E-11	2.331004E-9	5.500000E+1	-2.090100E-8
5.999807E+1	1.984518E-11	2.504784E-9	6.000000E+1	1.580300E-8
6.500257E+1	1.907138E-11	1.706974E-9	6.500000E+1	-2.101400E-8
7.000302E+1	1.835868E-11	1.978744E-9	7.000000E+1	-2.477300E-8
7.500355E+1	1.773958E-11	1.765304E-9	7.500000E+1	-2.907800E-8
7.999473E+1	1.718738E-11	1.812424E-9	8.000000E+1	4.318600E-8
8.499785E+1	1.665258E-11	2.009514E-9	8.500000E+1	1.759600E-8
9.000244E+1	1.623258E-11	1.445195E-9	9.000000E+1	-2.002000E-8
9.499749E+1	1.577348E-11	1.849454E-9	9.500000E+1	2.056400E-8
1.000028E+2	1.538588E-11	1.647254E-9	1.000000E+2	-2.253800E-8
1.099935E+2	1.467688E-11	2.424584E-9	1.100000E+2	5.310900E-8
1.200023E+2	1.405668E-11	1.636634E-9	1.200000E+2	-1.917600E-8
1.299966E+2	1.349678E-11	1.713824E-9	1.300000E+2	2.778100E-8
1.399954E+2	1.299558E-11	1.722144E-9	1.400000E+2	3.794800E-8
1.500047E+2	1.255098E-11	1.866254E-9	1.500000E+2	-3.871900E-8
1.599954E+2	1.218388E-11	1.493054E-9	1.600000E+2	3.793800E-8
1.700043E+2	1.179968E-11	1.871124E-9	1.700000E+2	-3.544200E-8
1.799984E+2	1.150038E-11	1.573424E-9	1.800000E+2	1.328600E-8
1.899958E+2	1.120898E-11	1.456347E-9	1.900000E+2	3.414700E-8
1.999986E+2	1.090548E-11	1.691044E-9	2.000000E+2	1.179000E-8
2.099919E+2	1.065348E-11	1.620414E-9	2.100000E+2	6.640400E-8
2.200019E+2	1.041508E-11	1.596734E-9	2.200000E+2	-1.588500E-8
2.299979E+2	1.020218E-11	2.208034E-9	2.300000E+2	1.685400E-8
2.400032E+2	9.972277E-12	1.659214E-9	2.400000E+2	-2.657400E-8
2.499963E+2	9.777577E-12	1.781654E-9	2.500000E+2	3.000000E-8
2.599915E+2	9.603177E-12	1.346163E-9	2.600000E+2	6.996000E-8
2.699970E+2	9.419277E-12	1.643384E-9	2.700000E+2	2.428800E-8
2.799911E+2	9.274077E-12	1.184827E-9	2.800000E+2	7.329600E-8
2.900024E+2	9.140877E-12	1.290432E-9	2.900000E+2	-1.970200E-8
2.999968E+2	9.082877E-12	1.473098E-9	3.000000E+2	2.590800E-8
3.099937E+2	9.063877E-12	1.852594E-9	3.100000E+2	5.178900E-8
3.200028E+2	9.036577E-12	1.491694E-9	3.200000E+2	-2.281800E-8
3.300029E+2	9.024177E-12	1.343604E-9	3.300000E+2	-2.400800E-8
3.399962E+2	9.014077E-12	1.534094E-9	3.400000E+2	3.147200E-8
3.499953E+2	9.013877E-12	1.433763E-9	3.500000E+2	3.831600E-8
3.599967E+2	9.008277E-12	1.353931E-9	3.600000E+2	2.671700E-8
3.700015E+2	8.999677E-12	1.383862E-9	3.700000E+2	-1.213200E-8
3.799979E+2	9.014477E-12	1.381189E-9	3.800000E+2	1.702000E-8
3.899956E+2	9.015177E-12	1.396633E-9	3.900000E+2	3.593000E-8
3.999957E+2	8.990277E-12	1.429109E-9	4.000000E+2	3.481200E-8
4.100037E+2	8.987377E-12	1.569294E-9	4.100000E+2	-3.046400E-8
4.199935E+2	9.000577E-12	1.458116E-9	4.200000E+2	5.322800E-8
4.300077E+2	8.993277E-12	1.385646E-9	4.300000E+2	-6.293800E-8
4.399977E+2	8.955477E-12	1.551584E-9	4.400000E+2	1.872000E-8
4.499978E+2	8.948677E-12	1.679764E-9	4.500000E+2	1.790800E-8
END
