CV Measurement
:Program Version
13.8.2003 Moll, 4.2008 Fahrer, 6.2011 Gabrysch
:Program Library
CVIV.llb
:start
13/04/2018 23:25:56
:stop
13/04/2018 23:34:09
:elapsed [s]
492.2
:gpib bus delay [ms]
50
:device
W332-M7
:tester
Isidre
:environment
Probe Station (28-2-019)
:comment
fluence: 7.44e12, SET:003136
:annealing time [min]
0
:material
n FZ
:temperature [C]
20.00
:ToolID
1102
:GuardRingConnection
1
:Region
0
:Instruments
V source: Keithley 237
- current compilance [A]: 1.000E-3
- integration time: 4 ms
- filter (averaging): 8
- source range: 1.1V
LCR meter: Agilent E4980A
- Frequency: 10000 Hz
- Signal level: 500 mV
- Averaging: 10
:LCR open correction: C[F] , G[S]
4.224E-11, 9.657E-9
:ramp up step [V], delay [s], down step [V], delay[s]
2.0, 1.0, 20.0, 0.5
:set voltage start [V], voltage stop [V], number of steps
0.0, 1000.0, 200
:measured voltage start [V], voltage stop [V], number of steps
0.0, 350.0, 59
:step mode
voltages from file
:legend
V_detector [V]	Capacitance [F]	Conductivity [S]	Bias [V]	Current Power Supply [A]
BEGIN
4.860281E-1	1.510073E-10	6.603563E-6	0.000000E+0	-3.980900E-6
5.537489E-1	1.443593E-10	3.130513E-6	5.000000E-1	-4.402400E-7
9.771496E-1	1.150423E-10	1.036233E-6	1.000000E+0	1.871600E-7
1.471414E+0	9.896826E-11	7.141118E-7	1.500000E+0	2.341400E-7
1.967120E+0	8.738626E-11	5.342928E-7	2.000000E+0	2.693100E-7
2.961776E+0	7.469926E-11	3.774768E-7	3.000000E+0	3.130800E-7
3.956769E+0	6.655626E-11	2.955288E-7	4.000000E+0	3.540900E-7
4.950834E+0	6.070626E-11	2.449518E-7	5.000000E+0	4.027000E-7
5.946467E+0	5.591946E-11	2.086198E-7	6.000000E+0	4.384700E-7
6.943950E+0	5.234996E-11	1.855318E-7	7.000000E+0	4.590900E-7
7.937955E+0	4.937246E-11	1.719128E-7	8.000000E+0	5.081900E-7
8.935576E+0	4.674696E-11	1.704478E-7	9.000000E+0	5.276800E-7
9.932644E+0	4.399976E-11	1.811938E-7	1.000000E+1	5.516900E-7
1.192519E+1	3.879146E-11	1.406358E-7	1.200000E+1	6.127100E-7
1.391926E+1	3.583866E-11	1.021338E-7	1.400000E+1	6.612900E-7
1.591425E+1	3.363066E-11	9.058181E-8	1.600000E+1	7.023200E-7
1.790823E+1	3.172666E-11	8.133121E-8	1.800000E+1	7.516200E-7
1.990412E+1	3.017086E-11	7.417231E-8	2.000000E+1	7.853200E-7
2.489234E+1	2.703786E-11	6.090781E-8	2.500000E+1	8.818300E-7
2.988288E+1	2.475446E-11	5.137141E-8	3.000000E+1	9.593000E-7
3.487262E+1	2.297356E-11	4.494791E-8	3.500000E+1	1.043300E-6
3.986398E+1	2.151056E-11	3.996571E-8	4.000000E+1	1.114100E-6
4.485687E+1	2.031536E-11	3.610861E-8	4.500000E+1	1.172300E-6
4.984957E+1	1.930186E-11	3.298051E-8	5.000000E+1	1.232100E-6
5.484022E+1	1.842996E-11	3.036801E-8	5.500000E+1	1.308700E-6
5.983438E+1	1.765796E-11	2.818211E-8	6.000000E+1	1.356500E-6
6.482746E+1	1.698706E-11	2.629861E-8	6.500000E+1	1.413200E-6
6.982066E+1	1.638956E-11	2.469111E-8	7.000000E+1	1.468900E-6
7.481506E+1	1.584386E-11	2.328741E-8	7.500000E+1	1.514800E-6
7.980777E+1	1.535776E-11	2.205871E-8	8.000000E+1	1.574500E-6
8.480291E+1	1.491426E-11	2.096801E-8	8.500000E+1	1.614300E-6
8.979469E+1	1.450326E-11	1.996121E-8	9.000000E+1	1.681600E-6
9.479129E+1	1.412966E-11	1.905741E-8	9.500000E+1	1.709500E-6
9.978244E+1	1.378476E-11	1.827051E-8	1.000000E+2	1.782000E-6
1.097737E+2	1.316096E-11	1.688711E-8	1.100000E+2	1.853200E-6
1.197631E+2	1.261666E-11	1.569511E-8	1.200000E+2	1.940000E-6
1.297524E+2	1.214006E-11	1.467841E-8	1.300000E+2	2.028200E-6
1.397416E+2	1.171286E-11	1.376911E-8	1.400000E+2	2.116200E-6
1.497325E+2	1.133116E-11	1.299831E-8	1.500000E+2	2.190600E-6
1.597227E+2	1.098516E-11	1.223951E-8	1.600000E+2	2.271500E-6
1.697144E+2	1.066886E-11	1.155531E-8	1.700000E+2	2.339500E-6
1.797057E+2	1.037996E-11	1.076621E-8	1.800000E+2	2.410200E-6
1.896976E+2	1.010906E-11	9.852109E-9	1.900000E+2	2.476700E-6
1.996889E+2	9.856663E-12	8.578109E-9	2.000000E+2	2.548300E-6
2.096831E+2	9.629163E-12	6.911909E-9	2.100000E+2	2.595800E-6
2.196769E+2	9.445563E-12	4.797909E-9	2.200000E+2	2.646300E-6
2.296713E+2	9.328263E-12	2.745809E-9	2.300000E+2	2.692000E-6
2.396686E+2	9.266163E-12	1.327609E-9	2.400000E+2	2.714300E-6
2.496655E+2	9.236763E-12	6.324087E-10	2.500000E+2	2.739400E-6
2.596627E+2	9.221663E-12	2.771687E-10	2.600000E+2	2.762500E-6
2.696605E+2	9.212863E-12	1.054587E-10	2.700000E+2	2.780500E-6
2.796598E+2	9.206863E-12	3.303867E-11	2.800000E+2	2.786300E-6
2.896564E+2	9.202963E-12	6.318667E-12	2.900000E+2	2.814100E-6
2.996540E+2	9.199863E-12	-3.641133E-11	3.000000E+2	2.833600E-6
3.096540E+2	9.197263E-12	-3.917133E-11	3.100000E+2	2.834100E-6
3.196492E+2	9.195163E-12	-2.424133E-11	3.200000E+2	2.873500E-6
3.296483E+2	9.193563E-12	2.178667E-12	3.300000E+2	2.880800E-6
3.396481E+2	9.191763E-12	3.714867E-11	3.400000E+2	2.882600E-6
3.496458E+2	9.190663E-12	9.134867E-11	3.500000E+2	2.901400E-6
END
