CV Measurement
:Program Version
13.8.2003 Moll, 4.2008 Fahrer, 6.2011 Gabrysch
:Program Library
CVIV.llb
:start
15/04/2018 18:17:44
:stop
15/04/2018 18:25:52
:elapsed [s]
487.6
:gpib bus delay [ms]
50
:device
W332-M7
:tester
Isidre
:environment
Probe Station (28-2-019)
:comment
fluence:7.44e12, SET:003136
:annealing time [min]
80
:material
n FZ
:temperature [C]
20.00
:ToolID
1102
:GuardRingConnection
1
:Region
0
:Instruments
V source: Keithley 237
- current compilance [A]: 1.000E-3
- integration time: 4 ms
- filter (averaging): 8
- source range: 1.1V
LCR meter: Agilent E4980A
- Frequency: 10000 Hz
- Signal level: 500 mV
- Averaging: 10
:LCR open correction: C[F] , G[S]
4.223E-11, 9.221E-9
:ramp up step [V], delay [s], down step [V], delay[s]
2.0, 1.0, 20.0, 0.5
:set voltage start [V], voltage stop [V], number of steps
0.0, 1000.0, 200
:measured voltage start [V], voltage stop [V], number of steps
0.0, 350.0, 59
:step mode
voltages from file
:legend
V_detector [V]	Capacitance [F]	Conductivity [S]	Bias [V]	Current Power Supply [A]
BEGIN
4.937930E-1	1.590439E-10	6.117259E-6	0.000000E+0	-4.044500E-6
5.540138E-1	1.522069E-10	2.777979E-6	5.000000E-1	-4.424100E-7
9.862075E-1	1.208759E-10	8.932930E-7	1.000000E+0	1.129700E-7
1.482734E+0	1.038029E-10	6.205940E-7	1.500000E+0	1.414200E-7
1.980711E+0	9.158894E-11	4.621980E-7	2.000000E+0	1.579900E-7
2.976664E+0	7.824094E-11	3.244660E-7	3.000000E+0	1.911400E-7
3.972673E+0	6.966094E-11	2.524780E-7	4.000000E+0	2.238300E-7
4.970547E+0	6.350194E-11	2.079670E-7	5.000000E+0	2.412400E-7
5.967575E+0	5.846194E-11	1.758260E-7	6.000000E+0	2.655800E-7
6.965320E+0	5.472204E-11	1.544030E-7	7.000000E+0	2.840500E-7
7.963268E+0	5.163594E-11	1.390410E-7	8.000000E+0	3.008600E-7
8.961608E+0	4.902074E-11	1.304040E-7	9.000000E+0	3.144600E-7
9.958719E+0	4.648034E-11	1.333190E-7	1.000000E+1	3.381200E-7
1.195464E+1	4.152104E-11	1.478470E-7	1.200000E+1	3.715500E-7
1.395175E+1	3.780684E-11	8.528954E-8	1.400000E+1	3.951600E-7
1.594734E+1	3.546484E-11	7.520064E-8	1.600000E+1	4.313600E-7
1.794464E+1	3.344984E-11	6.722004E-8	1.800000E+1	4.534700E-7
1.994278E+1	3.180184E-11	6.108114E-8	2.000000E+1	4.686600E-7
2.493475E+1	2.849174E-11	4.969954E-8	2.500000E+1	5.344600E-7
2.992874E+1	2.607444E-11	4.218664E-8	3.000000E+1	5.836900E-7
3.492431E+1	2.419474E-11	3.674274E-8	3.500000E+1	6.199200E-7
3.991786E+1	2.265104E-11	3.260004E-8	4.000000E+1	6.727700E-7
4.491235E+1	2.139084E-11	2.938054E-8	4.500000E+1	7.178900E-7
4.990870E+1	2.032134E-11	2.675694E-8	5.000000E+1	7.478100E-7
5.490423E+1	1.940144E-11	2.459934E-8	5.500000E+1	7.843900E-7
5.989975E+1	1.858684E-11	2.278084E-8	6.000000E+1	8.211300E-7
6.489570E+1	1.787914E-11	2.124204E-8	6.500000E+1	8.543000E-7
6.989192E+1	1.724904E-11	1.991474E-8	7.000000E+1	8.852500E-7
7.488908E+1	1.667804E-11	1.810914E-8	7.500000E+1	9.085000E-7
7.988480E+1	1.616524E-11	1.709114E-8	8.000000E+1	9.436000E-7
8.488013E+1	1.569754E-11	1.617774E-8	8.500000E+1	9.818000E-7
8.987483E+1	1.526394E-11	1.536504E-8	9.000000E+1	1.025200E-6
9.487326E+1	1.486974E-11	1.464904E-8	9.500000E+1	1.038100E-6
9.986934E+1	1.450634E-11	1.400214E-8	1.000000E+2	1.070200E-6
1.098630E+2	1.384904E-11	1.286074E-8	1.100000E+2	1.122300E-6
1.198569E+2	1.327534E-11	1.188564E-8	1.200000E+2	1.172100E-6
1.298494E+2	1.277274E-11	1.111194E-8	1.300000E+2	1.233200E-6
1.398432E+2	1.232244E-11	1.037684E-8	1.400000E+2	1.284000E-6
1.498375E+2	1.192014E-11	9.779943E-9	1.500000E+2	1.331200E-6
1.598332E+2	1.155484E-11	9.200143E-9	1.600000E+2	1.365900E-6
1.698259E+2	1.122184E-11	8.728343E-9	1.700000E+2	1.425700E-6
1.798232E+2	1.091974E-11	8.261443E-9	1.800000E+2	1.448400E-6
1.898165E+2	1.063924E-11	7.824543E-9	1.900000E+2	1.503100E-6
1.998110E+2	1.037994E-11	7.370543E-9	2.000000E+2	1.548100E-6
2.098064E+2	1.014004E-11	6.869443E-9	2.100000E+2	1.585800E-6
2.198020E+2	9.914540E-12	6.241643E-9	2.200000E+2	1.622100E-6
2.297981E+2	9.707040E-12	5.490243E-9	2.300000E+2	1.653600E-6
2.397949E+2	9.523340E-12	4.350443E-9	2.400000E+2	1.680300E-6
2.497922E+2	9.386140E-12	2.900343E-9	2.500000E+2	1.702100E-6
2.597877E+2	9.305340E-12	1.626343E-9	2.600000E+2	1.738600E-6
2.697854E+2	9.264240E-12	8.506427E-10	2.700000E+2	1.758100E-6
2.797847E+2	9.243540E-12	4.424227E-10	2.800000E+2	1.763800E-6
2.897827E+2	9.231940E-12	2.949627E-10	2.900000E+2	1.780100E-6
2.997818E+2	9.224640E-12	1.833627E-10	3.000000E+2	1.787000E-6
3.097796E+2	9.219740E-12	1.262827E-10	3.100000E+2	1.805200E-6
3.197790E+2	9.215940E-12	1.104327E-10	3.200000E+2	1.810000E-6
3.297773E+2	9.213140E-12	7.784267E-11	3.300000E+2	1.824200E-6
3.397751E+2	9.210740E-12	1.136927E-10	3.400000E+2	1.841900E-6
3.497750E+2	9.209140E-12	2.195927E-10	3.500000E+2	1.842700E-6
END
