CV Measurement
:Program Version
13.8.2003 Moll, 4.2008 Fahrer, 6.2011 Gabrysch
:Program Library
CVIV.llb
:start
15/04/2018 22:07:31
:stop
15/04/2018 22:15:39
:elapsed [s]
487.1
:gpib bus delay [ms]
50
:device
W332-F2
:tester
Isidre
:environment
Probe Station (28-2-019)
:comment
fluence:9.66e13, SET:003138
:annealing time [min]
80
:material
n FZ
:temperature [C]
20.00
:ToolID
1102
:GuardRingConnection
1
:Region
0
:Instruments
V source: Keithley 237
- current compilance [A]: 1.000E-3
- integration time: 4 ms
- filter (averaging): 8
- source range: 1.1V
LCR meter: Agilent E4980A
- Frequency: 10000 Hz
- Signal level: 500 mV
- Averaging: 10
:LCR open correction: C[F] , G[S]
4.223E-11, 9.221E-9
:ramp up step [V], delay [s], down step [V], delay[s]
2.0, 1.0, 20.0, 0.5
:set voltage start [V], voltage stop [V], number of steps
0.0, 1000.0, 200
:measured voltage start [V], voltage stop [V], number of steps
0.0, 350.0, 59
:step mode
voltages from file
:legend
V_detector [V]	Capacitance [F]	Conductivity [S]	Bias [V]	Current Power Supply [A]
BEGIN
1.408064E-1	3.477544E-11	1.151608E-5	0.000000E+0	-1.153300E-6
3.372907E-1	4.595924E-11	9.732079E-6	5.000000E-1	1.332700E-6
6.211059E-1	6.034494E-11	7.178259E-6	1.000000E+0	3.103400E-6
1.020272E+0	6.637194E-11	5.382139E-6	1.500000E+0	3.929300E-6
1.452341E+0	6.454594E-11	4.563159E-6	2.000000E+0	4.485700E-6
2.356085E+0	5.998194E-11	3.811779E-6	3.000000E+0	5.274100E-6
3.270207E+0	5.563714E-11	3.370379E-6	4.000000E+0	5.977500E-6
4.191435E+0	5.171144E-11	3.041899E-6	5.000000E+0	6.622700E-6
5.111783E+0	4.802214E-11	2.741019E-6	6.000000E+0	7.275100E-6
6.041313E+0	4.513614E-11	2.494249E-6	7.000000E+0	7.852300E-6
6.974884E+0	4.277744E-11	2.286509E-6	8.000000E+0	8.396400E-6
7.910676E+0	4.080374E-11	2.118819E-6	9.000000E+0	8.922300E-6
8.848203E+0	3.898784E-11	1.971489E-6	1.000000E+1	9.434000E-6
1.073820E+1	3.613854E-11	1.752569E-6	1.200000E+1	1.033500E-5
1.263247E+1	3.378574E-11	1.582569E-6	1.400000E+1	1.120100E-5
1.453602E+1	3.191434E-11	1.453479E-6	1.600000E+1	1.199100E-5
1.644604E+1	3.026344E-11	1.343189E-6	1.800000E+1	1.272800E-5
1.836302E+1	2.887224E-11	1.252089E-6	2.000000E+1	1.340800E-5
2.317756E+1	2.582604E-11	1.055879E-6	2.500000E+1	1.492700E-5
2.802715E+1	2.306344E-11	8.859020E-7	3.000000E+1	1.615900E-5
3.290457E+1	2.028214E-11	7.190540E-7	3.500000E+1	1.716300E-5
3.780519E+1	1.770964E-11	5.597380E-7	4.000000E+1	1.797700E-5
4.272656E+1	1.565464E-11	4.290930E-7	4.500000E+1	1.862100E-5
4.766283E+1	1.406674E-11	3.274410E-7	5.000000E+1	1.914300E-5
5.261180E+1	1.285474E-11	2.504610E-7	5.500000E+1	1.956100E-5
5.756553E+1	1.191594E-11	1.916580E-7	6.000000E+1	1.994000E-5
6.252878E+1	1.120554E-11	1.478510E-7	6.500000E+1	2.024100E-5
6.749422E+1	1.066114E-11	1.144290E-7	7.000000E+1	2.052400E-5
7.246480E+1	1.023884E-11	8.821424E-8	7.500000E+1	2.076500E-5
7.743904E+1	9.927140E-12	6.822384E-8	8.000000E+1	2.097600E-5
8.241535E+1	9.698540E-12	5.273504E-8	8.500000E+1	2.117000E-5
8.739423E+1	9.535340E-12	4.074474E-8	9.000000E+1	2.134300E-5
9.237494E+1	9.426140E-12	3.189334E-8	9.500000E+1	2.150100E-5
9.735700E+1	9.354640E-12	2.557854E-8	1.000000E+2	2.164800E-5
1.073253E+2	9.278240E-12	1.778084E-8	1.100000E+2	2.190800E-5
1.172961E+2	9.243640E-12	1.385754E-8	1.200000E+2	2.214700E-5
1.272691E+2	9.223940E-12	1.169314E-8	1.300000E+2	2.236800E-5
1.372438E+2	9.210640E-12	1.025064E-8	1.400000E+2	2.257500E-5
1.472201E+2	9.200040E-12	9.297843E-9	1.500000E+2	2.276900E-5
1.571968E+2	9.192840E-12	8.587643E-9	1.600000E+2	2.296000E-5
1.671731E+2	9.186640E-12	8.152843E-9	1.700000E+2	2.315400E-5
1.771492E+2	9.181440E-12	7.894643E-9	1.800000E+2	2.335000E-5
1.871262E+2	9.177040E-12	7.785843E-9	1.900000E+2	2.353800E-5
1.971021E+2	9.173540E-12	7.890043E-9	2.000000E+2	2.373600E-5
2.070811E+2	9.170840E-12	8.113243E-9	2.100000E+2	2.390800E-5
2.170578E+2	9.168740E-12	8.571943E-9	2.200000E+2	2.409900E-5
2.270311E+2	9.166840E-12	9.174243E-9	2.300000E+2	2.431700E-5
2.370084E+2	9.165440E-12	1.005834E-8	2.400000E+2	2.450300E-5
2.469829E+2	9.164640E-12	1.111754E-8	2.500000E+2	2.471200E-5
2.569554E+2	9.163840E-12	1.246514E-8	2.600000E+2	2.493700E-5
2.669296E+2	9.163440E-12	1.402954E-8	2.700000E+2	2.514900E-5
2.769037E+2	9.163640E-12	1.577604E-8	2.800000E+2	2.536100E-5
2.868723E+2	9.163540E-12	1.782004E-8	2.900000E+2	2.561800E-5
2.968380E+2	9.164440E-12	2.004684E-8	3.000000E+2	2.589900E-5
3.068034E+2	9.165140E-12	2.242654E-8	3.100000E+2	2.618200E-5
3.167379E+2	9.163740E-12	2.506254E-8	3.200000E+2	2.671900E-5
3.265516E+2	9.159240E-12	2.790064E-8	3.300000E+2	2.824500E-5
3.362183E+2	9.153240E-12	3.071674E-8	3.400000E+2	3.097500E-5
3.457056E+2	9.144640E-12	3.371424E-8	3.500000E+2	3.517400E-5
END
