CV Measurement
:Program Version
13.8.2003 Moll, 4.2008 Fahrer, 6.2011 Gabrysch
:Program Library
CVIV.llb
:start
23/11/2017 19:22:23
:stop
23/11/2017 19:30:35
:elapsed [s]
492.6
:gpib bus delay [ms]
50
:device
W332-C4
:tester
Isidre
:environment
Probe Station (28-2-019)
:comment
unirrad
:annealing time [min]
0
:material
n FZ
:temperature [C]
20.00
:ToolID
1102
:GuardRingConnection
1
:Region
0
:Instruments
V source: Keithley 237
- current compilance [A]: 1.000E-3
- integration time: 4 ms
- filter (averaging): 8
- source range: 1.1V
LCR meter: Agilent E4980A
- Frequency: 1000 Hz
- Signal level: 500 mV
- Averaging: 10
:LCR open correction: C[F] , G[S]
4.245E-11, -4.868E-10
:ramp up step [V], delay [s], down step [V], delay[s]
2.0, 1.0, 20.0, 0.5
:set voltage start [V], voltage stop [V], number of steps
0.0, 100.0, 20
:measured voltage start [V], voltage stop [V], number of steps
0.0, 350.0, 59
:step mode
voltages from file
:legend
V_detector [V]	Capacitance [F]	Conductivity [S]	Bias [V]	Current Power Supply [A]
BEGIN
3.641578E-1	3.876320E-9	3.812137E-6	0.000000E+0	-2.982700E-6
4.941603E-1	1.921446E-10	2.348012E-8	5.000000E-1	4.783100E-8
1.006045E+0	1.369666E-10	7.033474E-9	1.000000E+0	-4.950900E-8
1.501847E+0	1.162206E-10	5.675344E-9	1.500000E+0	-1.512500E-8
1.998022E+0	1.014306E-10	5.509694E-9	2.000000E+0	1.619900E-8
3.002266E+0	8.559058E-11	4.588724E-9	3.000000E+0	-1.856100E-8
4.001672E+0	7.565858E-11	3.996204E-9	4.000000E+0	-1.369600E-8
4.997298E+0	6.857258E-11	4.071034E-9	5.000000E+0	2.213300E-8
6.002394E+0	6.292958E-11	3.161414E-9	6.000000E+0	-1.961000E-8
6.994807E+0	5.871758E-11	3.639234E-9	7.000000E+0	4.253400E-8
7.997615E+0	5.527948E-11	3.450484E-9	8.000000E+0	1.953600E-8
9.005136E+0	5.241188E-11	3.495574E-9	9.000000E+0	-4.206700E-8
1.000135E+1	4.984208E-11	3.707214E-9	1.000000E+1	-1.102200E-8
1.200161E+1	4.583108E-11	4.260914E-9	1.200000E+1	-1.319100E-8
1.399606E+1	4.114608E-11	6.050704E-9	1.400000E+1	3.229600E-8
1.600131E+1	3.825878E-11	2.922464E-9	1.600000E+1	-1.074100E-8
1.800124E+1	3.606408E-11	2.952244E-9	1.800000E+1	-1.018400E-8
1.999633E+1	3.424568E-11	2.648944E-9	2.000000E+1	3.005300E-8
2.500169E+1	3.064378E-11	2.436424E-9	2.500000E+1	-1.383000E-8
3.000513E+1	2.799508E-11	2.313974E-9	3.000000E+1	-4.203100E-8
3.500209E+1	2.596908E-11	2.100024E-9	3.500000E+1	-1.708000E-8
4.000352E+1	2.428648E-11	2.109594E-9	4.000000E+1	-2.884500E-8
4.500250E+1	2.292728E-11	1.915174E-9	4.500000E+1	-2.044700E-8
4.999842E+1	2.175668E-11	1.795874E-9	5.000000E+1	1.295700E-8
5.499624E+1	2.075168E-11	2.319714E-9	5.500000E+1	3.080300E-8
5.999766E+1	1.985338E-11	1.849754E-9	6.000000E+1	1.917200E-8
6.499616E+1	1.908338E-11	2.630494E-9	6.500000E+1	3.145800E-8
7.000161E+1	1.842228E-11	1.758364E-9	7.000000E+1	-1.320800E-8
7.500178E+1	1.777598E-11	1.693694E-9	7.500000E+1	-1.458900E-8
7.999094E+1	1.724458E-11	1.533424E-9	8.000000E+1	7.418900E-8
8.499804E+1	1.670828E-11	1.791314E-9	8.500000E+1	1.605200E-8
8.999629E+1	1.622478E-11	1.984114E-9	9.000000E+1	3.039200E-8
9.499854E+1	1.581338E-11	1.707704E-9	9.500000E+1	1.198600E-8
9.999696E+1	1.542058E-11	1.569244E-9	1.000000E+2	2.490000E-8
1.100028E+2	1.470928E-11	1.528764E-9	1.100000E+2	-2.321600E-8
1.200074E+2	1.407988E-11	1.614914E-9	1.200000E+2	-6.035800E-8
1.299982E+2	1.355048E-11	1.968224E-9	1.300000E+2	1.486500E-8
1.399907E+2	1.304578E-11	2.538484E-9	1.400000E+2	7.615300E-8
1.500013E+2	1.262028E-11	2.673684E-9	1.500000E+2	-1.092400E-8
1.600024E+2	1.220648E-11	1.829474E-9	1.600000E+2	-1.988700E-8
1.700039E+2	1.187198E-11	1.492374E-9	1.700000E+2	-3.160800E-8
1.800032E+2	1.152348E-11	1.703174E-9	1.800000E+2	-2.603500E-8
1.900055E+2	1.122578E-11	1.752064E-9	1.900000E+2	-4.485600E-8
2.000017E+2	1.094428E-11	1.796014E-9	2.000000E+2	-1.373700E-8
2.099967E+2	1.067458E-11	1.691394E-9	2.100000E+2	2.683100E-8
2.199936E+2	1.044368E-11	1.554004E-9	2.200000E+2	5.252200E-8
2.299955E+2	1.023748E-11	1.404652E-9	2.300000E+2	3.720400E-8
2.399986E+2	1.001868E-11	1.441500E-9	2.400000E+2	1.158000E-8
2.500031E+2	9.832077E-12	1.504494E-9	2.500000E+2	-2.502200E-8
2.600019E+2	9.637077E-12	2.162444E-9	2.600000E+2	-1.555200E-8
2.699963E+2	9.472677E-12	1.705804E-9	2.700000E+2	3.046000E-8
2.799956E+2	9.286477E-12	1.626414E-9	2.800000E+2	3.580900E-8
2.900020E+2	9.165477E-12	1.549314E-9	2.900000E+2	-1.630200E-8
2.999911E+2	9.118277E-12	1.407243E-9	3.000000E+2	7.250700E-8
3.099955E+2	9.072777E-12	1.605494E-9	3.100000E+2	3.659200E-8
3.200065E+2	9.078377E-12	1.515054E-9	3.200000E+2	-5.360200E-8
3.299979E+2	9.054777E-12	1.520584E-9	3.300000E+2	1.698400E-8
3.399951E+2	9.071677E-12	1.294230E-9	3.400000E+2	4.033100E-8
3.499981E+2	9.055277E-12	1.571194E-9	3.500000E+2	1.544700E-8
END
