CV Measurement
:Program Version
13.8.2003 Moll, 4.2008 Fahrer, 6.2011 Gabrysch
:Program Library
CVIV.llb
:start
13/04/2018 23:07:12
:stop
13/04/2018 23:14:47
:elapsed [s]
454.6
:gpib bus delay [ms]
50
:device
W332-C4
:tester
Isidre
:environment
Probe Station (28-2-019)
:comment
fluence: 7.44e12, SET:003136
:annealing time [min]
0
:material
n FZ
:temperature [C]
20.00
:ToolID
1102
:GuardRingConnection
1
:Region
0
:Instruments
V source: Keithley 237
- current compilance [A]: 1.000E-3
- integration time: 4 ms
- filter (averaging): 8
- source range: 1.1V
LCR meter: Agilent E4980A
- Frequency: 10000 Hz
- Signal level: 500 mV
- Averaging: 10
:LCR open correction: C[F] , G[S]
4.224E-11, 9.657E-9
:ramp up step [V], delay [s], down step [V], delay[s]
2.0, 1.0, 20.0, 0.5
:set voltage start [V], voltage stop [V], number of steps
0.0, 1000.0, 200
:measured voltage start [V], voltage stop [V], number of steps
0.0, 310.0, 55
:step mode
voltages from file
:legend
V_detector [V]	Capacitance [F]	Conductivity [S]	Bias [V]	Current Power Supply [A]
BEGIN
4.802899E-1	1.500163E-10	6.642233E-6	0.000000E+0	-3.933900E-6
5.524609E-1	1.433183E-10	3.147443E-6	5.000000E-1	-4.296900E-7
9.751901E-1	1.140793E-10	1.043693E-6	1.000000E+0	2.032100E-7
1.470946E+0	9.818126E-11	7.195168E-7	1.500000E+0	2.379700E-7
1.966287E+0	8.672526E-11	5.385638E-7	2.000000E+0	2.761300E-7
2.959112E+0	7.418226E-11	3.807708E-7	3.000000E+0	3.349000E-7
3.953655E+0	6.610426E-11	2.981968E-7	4.000000E+0	3.796000E-7
4.949916E+0	6.031126E-11	2.472148E-7	5.000000E+0	4.102200E-7
5.945467E+0	5.556136E-11	2.107898E-7	6.000000E+0	4.466600E-7
6.939989E+0	5.202526E-11	1.879698E-7	7.000000E+0	4.915300E-7
7.937319E+0	4.906606E-11	1.752458E-7	8.000000E+0	5.134000E-7
8.932962E+0	4.642466E-11	1.755978E-7	9.000000E+0	5.490900E-7
9.930287E+0	4.361276E-11	1.871138E-7	1.000000E+1	5.710000E-7
1.192291E+1	3.839576E-11	1.309828E-7	1.200000E+1	6.314100E-7
1.391669E+1	3.554986E-11	1.027828E-7	1.400000E+1	6.823900E-7
1.591169E+1	3.336336E-11	9.124581E-8	1.600000E+1	7.233000E-7
1.790719E+1	3.147796E-11	8.194671E-8	1.800000E+1	7.602000E-7
1.990154E+1	2.993516E-11	7.478501E-8	2.000000E+1	8.064800E-7
2.489141E+1	2.682906E-11	6.137841E-8	2.500000E+1	8.894100E-7
2.987995E+1	2.456496E-11	5.171551E-8	3.000000E+1	9.833000E-7
3.487253E+1	2.279876E-11	4.524821E-8	3.500000E+1	1.044100E-6
3.986225E+1	2.134796E-11	4.017721E-8	4.000000E+1	1.128300E-6
4.485335E+1	2.016306E-11	3.632441E-8	4.500000E+1	1.201200E-6
4.984741E+1	1.915506E-11	3.325851E-8	5.000000E+1	1.249800E-6
5.483800E+1	1.828826E-11	3.062121E-8	5.500000E+1	1.326900E-6
5.983148E+1	1.752176E-11	2.836551E-8	6.000000E+1	1.380300E-6
6.482442E+1	1.685446E-11	2.650321E-8	6.500000E+1	1.438100E-6
6.981708E+1	1.626076E-11	2.488531E-8	7.000000E+1	1.498200E-6
7.481013E+1	1.571806E-11	2.344711E-8	7.500000E+1	1.555200E-6
7.980285E+1	1.523516E-11	2.221471E-8	8.000000E+1	1.614800E-6
8.479814E+1	1.479436E-11	2.107331E-8	8.500000E+1	1.653400E-6
8.979167E+1	1.438626E-11	2.007601E-8	9.000000E+1	1.706400E-6
9.478655E+1	1.401536E-11	1.920951E-8	9.500000E+1	1.748300E-6
9.978075E+1	1.367326E-11	1.837321E-8	1.000000E+2	1.795800E-6
1.097685E+2	1.305446E-11	1.695611E-8	1.100000E+2	1.896400E-6
1.197569E+2	1.251456E-11	1.575881E-8	1.200000E+2	1.991000E-6
1.297482E+2	1.204246E-11	1.471521E-8	1.300000E+2	2.062400E-6
1.397386E+2	1.161876E-11	1.382851E-8	1.400000E+2	2.141100E-6
1.497278E+2	1.124076E-11	1.303691E-8	1.500000E+2	2.229900E-6
1.597197E+2	1.089706E-11	1.227811E-8	1.600000E+2	2.295600E-6
1.697106E+2	1.058316E-11	1.155101E-8	1.700000E+2	2.370600E-6
1.797030E+2	1.029656E-11	1.076911E-8	1.800000E+2	2.432500E-6
1.896942E+2	1.002706E-11	9.746809E-9	1.900000E+2	2.504600E-6
1.996866E+2	9.775863E-12	8.354709E-9	2.000000E+2	2.566900E-6
2.096799E+2	9.555563E-12	6.509309E-9	2.100000E+2	2.621900E-6
2.196758E+2	9.385463E-12	4.280109E-9	2.200000E+2	2.655100E-6
2.296688E+2	9.283063E-12	2.340509E-9	2.300000E+2	2.712700E-6
2.396665E+2	9.231663E-12	1.149809E-9	2.400000E+2	2.731700E-6
2.496630E+2	9.207563E-12	5.569087E-10	2.500000E+2	2.760600E-6
2.596619E+2	9.195163E-12	3.022487E-10	2.600000E+2	2.769000E-6
2.696582E+2	9.187763E-12	1.459587E-10	2.700000E+2	2.799400E-6
2.796576E+2	9.182663E-12	7.373867E-11	2.800000E+2	2.804500E-6
2.896543E+2	9.178963E-12	6.098667E-12	2.900000E+2	2.831700E-6
2.996397E+2	9.175463E-12	1.946867E-11	3.000000E+2	2.951100E-6
3.087791E+2	9.139263E-12	8.554087E-10	3.100000E+2	1.000020E-5
END
